# 90Prime SDSS g filter curve: first column is wavelength in Angstrom; second column is the pure filter transmission; third column is the filter response include CCD QE; forth columns is the response including both CCD QE and atmospheric extinction at airmass of 1.0.
# wavelength (A)  res_noatm  respons_qe  res_qe_atm
3251.58 0.001 0.001 0.000
3498.22 0.000 0.000 0.000
3749.82 0.000 0.000 0.000
3874.38 -0.000 -0.000 -0.000
3889.28 0.002 0.002 0.001
3901.67 0.005 0.005 0.003
3909.03 0.010 0.010 0.007
3918.80 0.018 0.017 0.012
3923.57 0.028 0.027 0.019
3928.21 0.043 0.041 0.029
3928.38 0.036 0.034 0.024
3932.86 0.050 0.047 0.033
3933.06 0.049 0.047 0.033
3940.13 0.067 0.064 0.045
3944.70 0.086 0.082 0.057
3944.89 0.077 0.073 0.052
3949.39 0.099 0.094 0.066
3951.57 0.112 0.107 0.076
3953.76 0.126 0.120 0.085
3958.37 0.143 0.136 0.096
3966.61 0.220 0.210 0.148
3975.25 0.279 0.266 0.189
4008.42 0.466 0.446 0.320
4044.86 0.618 0.592 0.429
4046.97 0.627 0.601 0.436
4051.81 0.642 0.615 0.446
4059.06 0.652 0.625 0.454
4063.80 0.662 0.635 0.462
4066.07 0.672 0.644 0.470
4070.81 0.683 0.655 0.478
4080.57 0.692 0.663 0.485
4087.86 0.700 0.671 0.492
4102.54 0.712 0.683 0.502
4124.68 0.725 0.695 0.514
4141.94 0.732 0.702 0.522
4154.16 0.743 0.713 0.531
4163.90 0.753 0.722 0.540
4178.53 0.767 0.736 0.552
4195.67 0.780 0.749 0.564
4203.00 0.787 0.755 0.569
4240.33 0.788 0.757 0.576
4252.90 0.783 0.752 0.574
4287.76 0.784 0.753 0.580
4292.64 0.789 0.757 0.583
4310.15 0.786 0.755 0.583
4315.05 0.789 0.758 0.586
4330.04 0.787 0.756 0.586
4352.50 0.785 0.755 0.588
4362.38 0.789 0.759 0.592
4382.22 0.793 0.763 0.597
4397.07 0.797 0.766 0.602
4404.35 0.806 0.775 0.609
4419.16 0.812 0.781 0.616
4429.02 0.817 0.785 0.620
4433.85 0.824 0.792 0.626
4448.82 0.823 0.791 0.627
4458.56 0.833 0.801 0.636
4465.95 0.836 0.804 0.639
4493.36 0.836 0.804 0.642
4501.01 0.828 0.797 0.637
4513.63 0.820 0.788 0.632
4523.76 0.813 0.780 0.626
4538.95 0.802 0.768 0.618
4546.74 0.788 0.753 0.607
4557.11 0.770 0.735 0.593
4572.10 0.768 0.732 0.592
4584.65 0.764 0.727 0.589
4599.59 0.764 0.725 0.589
4611.98 0.767 0.727 0.591
4621.84 0.772 0.730 0.595
4636.57 0.781 0.738 0.602
4648.79 0.792 0.746 0.610
4656.03 0.802 0.755 0.618
4665.79 0.812 0.763 0.625
4680.48 0.823 0.772 0.634
4687.74 0.832 0.780 0.641
4692.49 0.843 0.789 0.649
4702.23 0.853 0.798 0.657
4714.46 0.863 0.806 0.664
4731.69 0.872 0.812 0.671
4739.03 0.878 0.817 0.676
4748.77 0.881 0.818 0.678
4748.93 0.881 0.818 0.678
4785.99 0.895 0.827 0.686
4795.93 0.896 0.826 0.687
4810.99 0.891 0.820 0.683
4836.01 0.886 0.813 0.679
4855.86 0.889 0.813 0.681
4860.93 0.886 0.809 0.678
4875.87 0.886 0.808 0.677
4885.75 0.890 0.810 0.680
4898.25 0.888 0.807 0.678
4925.64 0.888 0.804 0.678
4965.34 0.895 0.806 0.681
5015.09 0.899 0.804 0.682
5077.24 0.904 0.807 0.688
5114.48 0.909 0.812 0.694
5139.46 0.906 0.808 0.693
5147.07 0.900 0.803 0.688
5179.59 0.894 0.797 0.684
5207.19 0.886 0.788 0.678
5247.14 0.881 0.783 0.675
5269.64 0.878 0.780 0.673
5279.47 0.884 0.785 0.677
5311.98 0.878 0.779 0.673
5329.54 0.873 0.774 0.669
5334.84 0.859 0.761 0.658
5355.10 0.844 0.748 0.647
5365.33 0.832 0.737 0.638
5380.57 0.819 0.725 0.628
5403.25 0.808 0.715 0.620
5425.51 0.815 0.720 0.625
5437.79 0.823 0.727 0.632
5450.06 0.831 0.734 0.638
5460.39 0.814 0.719 0.625
5460.68 0.813 0.718 0.624
5463.36 0.793 0.700 0.609
5466.09 0.782 0.691 0.601
5466.32 0.772 0.682 0.593
5469.48 0.742 0.656 0.570
5470.18 0.691 0.611 0.531
5470.81 0.683 0.603 0.525
5476.92 0.633 0.559 0.486
5477.82 0.627 0.554 0.482
5478.46 0.453 0.400 0.348
5479.37 0.522 0.461 0.401
5484.55 0.403 0.356 0.310
5507.14 0.174 0.153 0.133
5512.58 0.153 0.135 0.118
5523.21 0.123 0.109 0.095
5531.35 0.094 0.083 0.072
5536.78 0.074 0.065 0.057
5542.00 0.063 0.056 0.049
5544.72 0.053 0.047 0.041
5552.40 0.044 0.038 0.033
5555.11 0.034 0.030 0.026
5567.78 0.024 0.021 0.019
5585.46 0.014 0.012 0.010
5603.01 0.009 0.008 0.007
5615.53 0.006 0.005 0.005
5625.53 0.004 0.004 0.003
5660.43 0.003 0.003 0.002
5690.37 0.001 0.001 0.001
5740.19 0.001 0.001 0.001
5804.96 0.001 0.001 0.001
5869.73 0.001 0.001 0.001
5949.46 0.000 0.000 0.000
6009.25 0.000 0.000 0.000
6151.24 0.000 0.000 0.000
6278.29 0.000 0.000 0.000
6395.37 0.000 0.000 0.000
6495.00 0.001 0.001 0.001
